File: Test-HDF/dump/15-hdf5_v4_dump.dat
# EVEH5Version	 = 4.0
# Comment	 = Test1 Sample-X intro basics
# Version	 = 1.27.2
# XMLversion	 = 5.0
# Location	 = KMC
# SCML-Name	 = scanTemplateInner.scml
# SCML-Author	 = fcm@fuenf
# StartTime	 = 10:14:08
# StartDate	 = 04.07.2017
# FileFormat	 = HDF5
#
# MotorPositions:
# 	Counter	 = 0
# 	SAMPLE_X	 = Undefined
# 	FILTER_1	 = 25um Be
# 	FILTER_2	 = None
# 	FILTER_PINHOLES	 = Al
# 	REF_DIODES	 = Thin diode
# 	DIODE_IN_MONO	 = Out
# 	DIODE_BEHIND_MONO	 = Out
# 	COATING_2nd_MIR	 = MgF2
# 	Energy	 = 3500
# 	Mono_1st_wheel	 = 28.26565
# 	Mono_2nd_wheel	 = 28.2656
# 	Mono_cr_change	 = 0.999986
# 	nomTemperature	 = 29.9
# 	Scanner Motor	 = 1.0
# 	Bieger	 = 2.75
# 	Tilt-Z	 = 0.0
# 	Sample-Z	 = 0.0
# 	Sample-Y	 = 0.0
# 	Tilt-y	 = -3.55271e-15
# 	Theta	 = 0.0
# 	2Theta	 = -1.42109e-14
# 	Det.-X	 = 8.88178e-16
# 	Sample-X	 = 90.0
# 	Filter_1	 = 66.5
# 	Filter_2	 = 99.7
# 	Mirror_1_hor	 = 0.0
# 	Mirror_1_vert	 = -0.48
# 	Mirror_1_theta	 = 7.50038
# 	Mirror_1_psi	 = -1.50036
# 	Beam_pos_vert	 = 1.0
# 	Beam_pos_hor	 = 1.0
# 	Slit_1_up	 = 22.9
# 	Slit_1_down	 = 12.9
# 	Slit_1_right	 = 27.03
# 	Slit_1_left	 = 18.54
# 	Slit_2_up	 = 34.75
# 	Slit_2_down	 = 13.78
# 	Filter_CCD_pinholes	 = 51.5
# 	Ref_Diodes	 = 55.5
# 	Crystal_2_theta	 = 8.306
# 	Crystal_3_theta	 = 3.9583
# 	Crystal_2_phi	 = 2.7995
# 	Crystal_1_phi	 = 2.3865
# 	Crystal_3_phi	 = 19.733
# 	Crystal_4_phi	 = 4.397
# 	Diode_in_mono	 = 90.0
# 	Diode_behind_mono	 = 5.0
# 	Slit_3_up	 = 17.9
# 	Slit_3_down	 = 16.4
# 	Slit_3_right	 = 29.45
# 	Slit_3_left	 = 32.45
# 	Mirror_2_hor	 = 24.0
# 	Mirror_2_vert	 = -1.73
# 	Mirror_2_theta	 = 7.53526
# 	Lift_table	 = 615
# 	Slit_4_up	 = 0.91125
# 	Slit_4_down	 = -0.53875
# 	Slit_4_right	 = 6.2775
# 	Slit_4_left	 = 0.9775
# 	Slit_1_vert_pos	 = 1.77636e-15
# 	Slit_1_hor_pos	 = 8.88178e-16
# 	Slit_2_vert_pos	 = 0.4
# 	Slit_3_vert_pos	 = 5.25
# 	Slit_3_hor_pos	 = -3.8
# 	Slit_4_vert_pos	 = 0.22
# 	Slit_4_hor_pos	 = 3.25
# 	Slit_1_vert_size	 = 1.0
# 	Slit_1_hor_size	 = 10.0
# 	Slit_2_vert_size	 = 15.0
# 	Slit_3_vert_size	 = 25
# 	Slit_3_hor_size	 = 35
# 	Slit_4_vert_size	 = 5
# 	Slit_4_hor_size	 = 8.0
# 	date Timer	 = 2017-07-04T10:14:08.140+02:00
# 	Timer	 = 0.0
# 	msec Timer	 = 0
#
# DetectorValues:
# 	Mono_Cu_Temp	 = 31.4794 31.4794
# 	Cr_1_Cu_Bloc	 = 29.8772 29.8985
# 	Cr_2_Si_Temp	 = 30.7195 30.7195
# 	Mon_Gear_Temp	 = 33.1975 33.1792
# 	Cr_3_Si_Temp	 = 28.9193 28.92
# 	Cr_4_InSb_Temp	 = 28.9105 28.9195
# 	Therm_ext	 = 28.3 28.4
# 	Therm_int	 = 30.0 29.9
# 	Thermostat	 = no fault
# 	Keithley_1	 = 5.355e-14 5.409e-14
# 	Keithley_2	 = 5.57e-15 6.08e-15
# 	Keithley_3	 = 0.0 0.0
# 	Keithley_4	 = 2.122e-14 2.124e-14
# 	Scanner	 = {#58} #58
# 	Bessy_Ringstrom	 = 0.0645371 0.0658
# 	Bessy_Lebensdauer	 = -0.377765 -0.130054
# 	Offset_1st_wheel	 = -6.912 -6.912
# 	Offset_2nd_wheel	 = 210.325 210.325
# 	Offset_Theta	 = -533.79 -533.79
# 	Offset_2Theta	 = 88.722 88.722
# 	date Time	 = 2017-07-04T10:14:08.178+02:00 2017-07-04T10:22:22.180+02:00
# 	Time	 = 0.058 494.059
# 	msec Time	 = 57 494059
# 	PTB_U49	 = 100.005 100.005
# 	Ring_1	 = -0.128962 -0.127865
# 	Lebensdauer_1	 = -0.261829 0.8418
# 	Ring_2	 = 0.245224 0.246134
# 	Lebensdauer_2	 = -0.644164 4.38684
# 	Pot_Mi_1_hor	 = 3.50661 3.50141
# 	Pot_Mi_1_vert	 = 3.08833 3.08592
# 	Pot_Mi_1_theta	 = 3.77858 3.77691
# 	Pot_Mi_1_psi	 = 5.37926 5.37703
# 	Tilt_Mi_1_theta	 = 8.3142 8.3114
# 	Tilt_Mi_1_phi	 = -3.56072 -3.5601
# 	FCM_Diff	 = -0.00283503 -0.00333768
# 	Tilt_Mono_theta	 = -0.0723239 -0.0709799
# 	Tilt_Mono_psi	 = 0.170521 0.173448
# 	Pot_Mi_2_hor	 = 1.96658 1.96921
# 	Pot_Mi_2_vert	 = -9.77672 -8.6849
# 	Pot_Mi_2_theta	 = 3.4645 3.46472
# 	Tilt_Mi_2_theta	 = 5.55783 5.55407
# 	Tilt_Mi_2_phi	 = -0.351921 -0.353224
# 	Pressure_Bender	 = 2.73056 2.76895
#
# Plot:
# 	Motor	 = Sample-Y
# 	Detector	 = Keithley_1
# 	Monitor	 = Keithley_4
#
# Motors:
# 	Sample-Y:
# 		XML-ID	 = OMS58:io1500002
# 		Name	 = Sample-Y
# 		Access	 = ca:OMS58:io1500002
# 		DeviceType	 = Axis
# 		Position	 = 0
# 		Unit	 = deg
# 	Sample-X:
# 		XML-ID	 = OMS58:io1501003
# 		Name	 = Sample-X
# 		Access	 = ca:OMS58:io1501003
# 		DeviceType	 = Axis
# 		Position	 = 90
# 		Unit	 = mm
# Detectors:
# 	Keithley_1:
# 		XML-ID	 = K0617:22726chan1
# 		Name	 = Keithley_1
# 		Access	 = ca:K0617:22726.VAL
# 		Unit	 = A
# 		DeviceType	 = Channel
# 		Detectortype	 = Standard
# 	Keithley_4:
# 		XML-ID	 = K0617:22729chan1
# 		Name	 = Keithley_4
# 		Access	 = ca:K0617:22729.VAL
# 		Unit	 = A
# 		DeviceType	 = Channel
# 		Detectortype	 = Standard
# Datasets:
# 	PosCountTimer:
# 		unit	 = msecs
# 	PosCounter:
# Sample-Y	Sample-X	Keithley_1	Keithley_4	PosCountTimer	PosCounter
-10.0	80.0	5.459e-14	2.119e-14	4255	3
-9.8	80.0	5.373e-14	2.17e-14	43067	4
-9.6	80.0	5.36e-14	2.13e-14	45937	5
-9.4	80.0	5.461e-14	2.193e-14	48825	6
-9.2	80.0	5.416e-14	2.157e-14	51712	7
-9.0	80.0	5.469e-14	2.13e-14	54599	8
-8.8	80.0	5.417e-14	2.098e-14	57573	9
-8.6	80.0	5.381e-14	2.138e-14	60460	10
-8.4	80.0	5.342e-14	2.174e-14	63348	11
-8.2	80.0	5.408e-14	2.133e-14	66269	12
-8.0	80.0	5.367e-14	2.191e-14	69156	13
-10.0	81.0	5.408e-14	2.114e-14	73095	14
-9.8	81.0	5.401e-14	2.117e-14	85519	15
-9.6	81.0	5.446e-14	2.137e-14	88423	16
-9.4	81.0	5.363e-14	2.137e-14	91310	17
-9.2	81.0	5.421e-14	2.135e-14	94198	18
-9.0	81.0	5.441e-14	2.203e-14	97085	19
-8.8	81.0	5.438e-14	2.347e-14	99981	20
-8.6	81.0	5.348e-14	2.257e-14	102844	21
-8.4	81.0	5.4e-14	2.171e-14	105731	22
-8.2	81.0	5.472e-14	2.125e-14	108618	23
-8.0	81.0	5.369e-14	2.134e-14	111488	24
-10.0	82.0	5.313e-14	2.087e-14	115444	25
-9.8	82.0	5.365e-14	2.123e-14	127833	26
-9.6	82.0	5.358e-14	2.135e-14	130720	27
-9.4	82.0	5.432e-14	2.135e-14	133608	28
-9.2	82.0	5.403e-14	2.153e-14	136495	29
-9.0	82.0	5.381e-14	2.158e-14	139365	30
-8.8	82.0	5.433e-14	2.281e-14	142252	31
-8.6	82.0	5.404e-14	2.13e-14	145140	32
-8.4	82.0	5.356e-14	2.133e-14	148027	33
-8.2	82.0	5.343e-14	2.206e-14	150915	34
-8.0	82.0	5.317e-14	2.177e-14	153843	35
-10.0	83.0	5.456e-14	2.064e-14	157741	36
-9.8	83.0	5.408e-14	2.096e-14	170164	37
-9.6	83.0	5.416e-14	2.098e-14	173051	38
-9.4	83.0	5.401e-14	2.173e-14	175922	39
-9.2	83.0	5.371e-14	2.121e-14	178809	40
-9.0	83.0	5.365e-14	2.112e-14	181679	41
-8.8	83.0	5.417e-14	2.155e-14	184567	42
-8.6	83.0	5.35e-14	2.164e-14	187454	43
-8.4	83.0	5.333e-14	2.07e-14	190341	44
-8.2	83.0	5.329e-14	2.183e-14	193229	45
-8.0	83.0	5.375e-14	2.073e-14	196133	46
-10.0	84.0	5.308e-14	2.117e-14	200072	47
-9.8	84.0	5.467e-14	2.098e-14	212513	48
-9.6	84.0	5.353e-14	2.253e-14	215400	49
-9.4	84.0	5.324e-14	2.066e-14	218287	50
-9.2	84.0	5.417e-14	2.047e-14	221175	51
-9.0	84.0	5.356e-14	2.117e-14	224063	52
-8.8	84.0	5.336e-14	2.159e-14	226950	53
-8.6	84.0	5.389e-14	2.137e-14	229837	54
-8.4	84.0	5.412e-14	2.202e-14	232724	55
-8.2	84.0	5.36e-14	2.084e-14	235612	56
-8.0	84.0	5.348e-14	2.126e-14	238507	57
-10.0	85.0	5.397e-14	2.075e-14	242438	58
-9.8	85.0	5.368e-14	2.094e-14	254827	59
-9.6	85.0	5.278e-14	2.248e-14	257714	60
-9.4	85.0	5.408e-14	2.15e-14	260619	61
-9.2	85.0	5.381e-14	2.113e-14	263506	62
-9.0	85.0	5.351e-14	2.143e-14	266394	63
-8.8	85.0	5.387e-14	2.153e-14	269264	64
-8.6	85.0	5.375e-14	2.132e-14	272151	65
-8.4	85.0	5.335e-14	2.122e-14	275022	66
-8.2	85.0	5.425e-14	2.152e-14	277909	67
-8.0	85.0	5.36e-14	2.101e-14	280813	68
-10.0	86.0	5.356e-14	2.188e-14	284735	69
-9.8	86.0	5.41e-14	2.078e-14	297141	70
-9.6	86.0	5.365e-14	2.169e-14	300028	71
-9.4	86.0	5.37e-14	2.178e-14	302933	72
-9.2	86.0	5.343e-14	2.201e-14	305803	73
-9.0	86.0	5.349e-14	2.055e-14	308691	74
-8.8	86.0	5.359e-14	2.234e-14	311578	75
-8.6	86.0	5.395e-14	2.135e-14	314465	76
-8.4	86.0	5.329e-14	2.157e-14	317359	77
-8.2	86.0	5.342e-14	2.099e-14	320223	78
-8.0	86.0	5.321e-14	2.124e-14	323111	79
-10.0	87.0	5.367e-14	2.202e-14	327067	80
-9.8	87.0	5.384e-14	2.116e-14	339464	81
-9.6	87.0	5.374e-14	2.162e-14	342360	82
-9.4	87.0	5.432e-14	2.188e-14	345247	83
-9.2	87.0	5.443e-14	2.169e-14	348135	84
-9.0	87.0	5.33e-14	2.106e-14	351022	85
-8.8	87.0	5.437e-14	2.13e-14	353892	86
-8.6	87.0	5.384e-14	2.114e-14	356797	87
-8.4	87.0	5.444e-14	2.102e-14	359684	88
-8.2	87.0	5.386e-14	2.192e-14	362572	89
-8.0	87.0	5.303e-14	2.114e-14	365511	90
-10.0	88.0	5.285e-14	2.13e-14	369536	91
-9.8	88.0	5.367e-14	2.103e-14	381924	92
-9.6	88.0	5.328e-14	2.096e-14	384812	93
-9.4	88.0	5.256e-14	2.108e-14	387699	94
-9.2	88.0	5.392e-14	2.245e-14	390569	95
-9.0	88.0	5.383e-14	2.068e-14	393508	96
-8.8	88.0	5.429e-14	2.119e-14	396395	97
-8.6	88.0	5.362e-14	2.144e-14	399266	98
-8.4	88.0	5.461e-14	2.159e-14	402153	99
-8.2	88.0	5.312e-14	2.09e-14	405040	100
-8.0	88.0	5.36e-14	2.103e-14	407969	101
-10.0	89.0	5.355e-14	2.155e-14	411867	102
-9.8	89.0	5.387e-14	2.144e-14	424255	103
-9.6	89.0	5.496e-14	2.285e-14	427143	104
-9.4	89.0	5.368e-14	2.135e-14	430013	105
-9.2	89.0	5.33e-14	2.124e-14	432900	106
-9.0	89.0	5.465e-14	2.133e-14	435788	107
-8.8	89.0	5.364e-14	2.189e-14	438675	108
-8.6	89.0	5.306e-14	2.131e-14	441545	109
-8.4	89.0	5.402e-14	2.157e-14	444433	110
-8.2	89.0	5.408e-14	2.182e-14	447320	111
-8.0	89.0	5.35e-14	2.139e-14	450208	112
-10.0	90.0	5.423e-14	2.117e-14	454147	113
-9.8	90.0	5.386e-14	2.127e-14	466553	114
-9.6	90.0	5.45e-14	2.142e-14	469441	115
-9.4	90.0	5.327e-14	2.128e-14	472310	116
-9.2	90.0	5.321e-14	2.124e-14	475197	117
-9.0	90.0	5.348e-14	2.126e-14	478085	118
-8.8	90.0	5.372e-14	2.155e-14	480972	119
-8.6	90.0	5.324e-14	2.114e-14	483860	120
-8.4	90.0	5.305e-14	2.134e-14	486730	121
-8.2	90.0	5.386e-14	2.174e-14	489617	122
-8.0	90.0	5.377e-14	2.171e-14	492522	123